#Lambda (AA)  Relative Transmission
      5485.00  1.26386e-05
      5490.00  2.36146e-05
      5495.00  2.12639e-05
      5500.00  2.28261e-05
      5505.00  4.31784e-05
      5510.00  6.89918e-05
      5515.00  9.47823e-05
      5520.00  0.000129152
      5525.00  0.000197039
      5530.00  0.000310191
      5535.00  0.000454644
      5540.00  0.000652514
      5545.00  0.000918616
      5550.00   0.00129831
      5555.00   0.00182585
      5560.00   0.00249857
      5565.00   0.00341212
      5570.00   0.00458334
      5575.00   0.00608713
      5580.00   0.00799585
      5585.00    0.0103389
      5590.00    0.0133157
      5595.00    0.0169214
      5600.00    0.0211842
      5605.00    0.0262742
      5610.00    0.0322200
      5615.00    0.0390856
      5620.00    0.0470293
      5625.00    0.0560275
      5630.00    0.0662268
      5635.00    0.0774293
      5640.00    0.0896052
      5645.00     0.102795
      5650.00     0.117287
      5655.00     0.132517
      5660.00     0.149095
      5665.00     0.166292
      5670.00     0.183838
      5675.00     0.202178
      5680.00     0.220900
      5685.00     0.240767
      5690.00     0.261172
      5695.00     0.280194
      5700.00     0.300146
      5705.00     0.319951
      5710.00     0.340023
      5715.00     0.359549
      5720.00     0.379139
      5725.00     0.398414
      5730.00     0.417243
      5735.00     0.435630
      5740.00     0.453342
      5745.00     0.471006
      5750.00     0.488100
      5755.00     0.504237
      5760.00     0.520160
      5765.00     0.535525
      5770.00     0.549938
      5775.00     0.564014
      5780.00     0.577388
      5785.00     0.590374
      5790.00     0.602442
      5795.00     0.614071
      5800.00     0.625204
      5805.00     0.635869
      5810.00     0.645988
      5815.00     0.655461
      5820.00     0.664701
      5825.00     0.673250
      5830.00     0.681237
      5835.00     0.688827
      5840.00     0.696000
      5845.00     0.703069
      5850.00     0.709504
      5855.00     0.715637
      5860.00     0.721503
      5865.00     0.726709
      5870.00     0.731697
      5875.00     0.736460
      5880.00     0.740869
      5885.00     0.744945
      5890.00     0.748976
      5895.00     0.752400
      5900.00     0.756022
      5905.00     0.759111
      5910.00     0.761848
      5915.00     0.764413
      5920.00     0.766717
      5925.00     0.769233
      5930.00     0.771140
      5935.00     0.773299
      5940.00     0.775016
      5945.00     0.776553
      5950.00     0.778116
      5955.00     0.779589
      5960.00     0.780439
      5965.00     0.781557
      5970.00     0.782529
      5975.00     0.783250
      5980.00     0.784193
      5985.00     0.784713
      5990.00     0.784892
      5995.00     0.785414
      6000.00     0.785642
      6005.00     0.785740
      6010.00     0.785726
      6015.00     0.785962
      6020.00     0.785788
      6025.00     0.785753
      6030.00     0.785291
      6035.00     0.785064
      6040.00     0.784862
      6045.00     0.784409
      6050.00     0.783841
      6055.00     0.783326
      6060.00     0.782744
      6065.00     0.781881
      6070.00     0.781288
      6075.00     0.780314
      6080.00     0.779673
      6085.00     0.778602
      6090.00     0.777653
      6095.00     0.776787
      6100.00     0.775593
      6105.00     0.774542
      6110.00     0.773297
      6115.00     0.772339
      6120.00     0.770959
      6125.00     0.769749
      6130.00     0.768608
      6135.00     0.767002
      6140.00     0.765794
      6145.00     0.764671
      6150.00     0.762902
      6155.00     0.761392
      6160.00     0.759989
      6165.00     0.758466
      6170.00     0.756738
      6175.00     0.755119
      6180.00     0.753542
      6185.00     0.751999
      6190.00     0.750259
      6195.00     0.748525
      6200.00     0.746646
      6205.00     0.744929
      6210.00     0.743113
      6215.00     0.741250
      6220.00     0.739617
      6225.00     0.737610
      6230.00     0.735688
      6235.00     0.733930
      6240.00     0.731733
      6245.00     0.729933
      6250.00     0.727865
      6255.00     0.725829
      6260.00     0.724016
      6265.00     0.721739
      6270.00     0.720002
      6275.00     0.717862
      6280.00     0.715765
      6285.00     0.713537
      6290.00     0.711561
      6295.00     0.709214
      6300.00     0.706960
      6305.00     0.704762
      6310.00     0.702648
      6315.00     0.700512
      6320.00     0.698318
      6325.00     0.696022
      6330.00     0.693769
      6335.00     0.691411
      6340.00     0.689351
      6345.00     0.686982
      6350.00     0.684732
      6355.00     0.682431
      6360.00     0.679932
      6365.00     0.677711
      6370.00     0.675489
      6375.00     0.672975
      6380.00     0.670824
      6385.00     0.668425
      6390.00     0.666078
      6395.00     0.663609
      6400.00     0.661190
      6405.00     0.658833
      6410.00     0.656335
      6415.00     0.654014
      6420.00     0.651658
      6425.00     0.649079
      6430.00     0.646671
      6435.00     0.644196
      6440.00     0.641696
      6445.00     0.639370
      6450.00     0.636823
      6455.00     0.634378
      6460.00     0.631683
      6465.00     0.629331
      6470.00     0.626893
      6475.00     0.624393
      6480.00     0.621943
      6485.00     0.619391
      6490.00     0.616877
      6495.00     0.614311
      6500.00     0.611687
      6505.00     0.609281
      6510.00     0.606760
      6515.00     0.604308
      6520.00     0.601791
      6525.00     0.599221
      6530.00     0.596791
      6535.00     0.594254
      6540.00     0.591704
      6545.00     0.589059
      6550.00     0.586473
      6555.00     0.584036
      6560.00     0.581443
      6565.00     0.578905
      6570.00     0.576519
      6575.00     0.573845
      6580.00     0.571176
      6585.00     0.568714
      6590.00     0.566149
      6595.00     0.563528
      6600.00     0.561190
      6605.00     0.558515
      6610.00     0.556066
      6615.00     0.553367
      6620.00     0.550661
      6625.00     0.548169
      6630.00     0.545714
      6635.00     0.543267
      6640.00     0.540630
      6645.00     0.538034
      6650.00     0.535321
      6655.00     0.532765
      6660.00     0.530071
      6665.00     0.527450
      6670.00     0.524924
      6675.00     0.522379
      6680.00     0.519707
      6685.00     0.517067
      6690.00     0.514426
      6695.00     0.511759
      6700.00     0.509282
      6705.00     0.506551
      6710.00     0.503903
      6715.00     0.501180
      6720.00     0.498396
      6725.00     0.495902
      6730.00     0.493067
      6735.00     0.490365
      6740.00     0.487740
      6745.00     0.485034
      6750.00     0.482407
      6755.00     0.479819
      6760.00     0.476984
      6765.00     0.474242
      6770.00     0.471480
      6775.00     0.468691
      6780.00     0.465992
      6785.00     0.463222
      6790.00     0.460435
      6795.00     0.457733
      6800.00     0.454918
      6805.00     0.452138
      6810.00     0.449346
      6815.00     0.446594
      6820.00     0.443661
      6825.00     0.440960
      6830.00     0.438140
      6835.00     0.435288
      6840.00     0.432479
      6845.00     0.429636
      6850.00     0.426954
      6855.00     0.424109
      6860.00     0.421196
      6865.00     0.418448
      6870.00     0.415702
      6875.00     0.412759
      6880.00     0.410125
      6885.00     0.407219
      6890.00     0.404530
      6895.00     0.401626
      6900.00     0.398988
      6905.00     0.396243
      6910.00     0.393402
      6915.00     0.390546
      6920.00     0.387939
      6925.00     0.385085
      6930.00     0.382468
      6935.00     0.379697
      6940.00     0.376850
      6945.00     0.374013
      6950.00     0.371258
      6955.00     0.368698
      6960.00     0.365980
      6965.00     0.363304
      6970.00     0.360608
      6975.00     0.357839
      6980.00     0.355086
      6985.00     0.352359
      6990.00     0.349775
      6995.00     0.347140
      7000.00     0.344447
      7005.00     0.341833
      7010.00     0.339211
      7015.00     0.336530
      7020.00     0.334010
      7025.00     0.331460
      7030.00     0.328800
      7035.00     0.326214
      7040.00     0.323592
      7045.00     0.321009
      7050.00     0.318685
      7055.00     0.316024
      7060.00     0.313374
      7065.00     0.310913
      7070.00     0.308412
      7075.00     0.305867
      7080.00     0.303311
      7085.00     0.300923
      7090.00     0.298453
      7095.00     0.295983
      7100.00     0.293496
      7105.00     0.291177
      7110.00     0.288753
      7115.00     0.286246
      7120.00     0.283888
      7125.00     0.281528
      7130.00     0.278953
      7135.00     0.276774
      7140.00     0.274253
      7145.00     0.272025
      7150.00     0.269680
      7155.00     0.267284
      7160.00     0.264992
      7165.00     0.262599
      7170.00     0.260402
      7175.00     0.258223
      7180.00     0.255876
      7185.00     0.253669
      7190.00     0.251393
      7195.00     0.249043
      7200.00     0.247002
      7205.00     0.244701
      7210.00     0.242510
      7215.00     0.240397
      7220.00     0.238162
      7225.00     0.236006
      7230.00     0.233926
      7235.00     0.231737
      7240.00     0.229692
      7245.00     0.227500
      7250.00     0.225482
      7255.00     0.223268
      7260.00     0.221231
      7265.00     0.219176
      7270.00     0.217105
      7275.00     0.215089
      7280.00     0.213152
      7285.00     0.211044
      7290.00     0.209007
      7295.00     0.206992
      7300.00     0.205053
      7305.00     0.203101
      7310.00     0.201122
      7315.00     0.199180
      7320.00     0.197181
      7325.00     0.195277
      7330.00     0.193367
      7335.00     0.191477
      7340.00     0.189634
      7345.00     0.187699
      7350.00     0.185838
      7355.00     0.183959
      7360.00     0.182059
      7365.00     0.180300
      7370.00     0.178464
      7375.00     0.176610
      7380.00     0.174766
      7385.00     0.173023
      7390.00     0.171149
      7395.00     0.169347
      7400.00     0.167713
      7405.00     0.165855
      7410.00     0.164133
      7415.00     0.162386
      7420.00     0.160697
      7425.00     0.158956
      7430.00     0.157306
      7435.00     0.155561
      7440.00     0.153950
      7445.00     0.152252
      7450.00     0.150584
      7455.00     0.148892
      7460.00     0.147359
      7465.00     0.145725
      7470.00     0.144118
      7475.00     0.142460
      7480.00     0.140862
      7485.00     0.139349
      7490.00     0.137758
      7495.00     0.136255
      7500.00     0.134659
      7505.00     0.133124
      7510.00     0.131659
      7515.00     0.130182
      7520.00     0.128589
      7525.00     0.127082
      7530.00     0.125704
      7535.00     0.124231
      7540.00     0.122775
      7545.00     0.121288
      7550.00     0.119930
      7555.00     0.118505
      7560.00     0.117145
      7565.00     0.115674
      7570.00     0.114341
      7575.00     0.112954
      7580.00     0.111567
      7585.00     0.110225
      7590.00     0.108882
      7595.00     0.107545
      7600.00     0.106220
      7605.00     0.104924
      7610.00     0.103655
      7615.00     0.102429
      7620.00     0.101136
      7625.00    0.0998096
      7630.00    0.0985915
      7635.00    0.0973739
      7640.00    0.0961237
      7645.00    0.0949626
      7650.00    0.0937613
      7655.00    0.0925549
      7660.00    0.0914130
      7665.00    0.0902871
      7670.00    0.0890703
      7675.00    0.0879369
      7680.00    0.0867874
      7685.00    0.0856675
      7690.00    0.0845342
      7695.00    0.0835050
      7700.00    0.0823160
      7705.00    0.0812699
      7710.00    0.0802359
      7715.00    0.0791584
      7720.00    0.0781278
      7725.00    0.0770977
      7730.00    0.0760525
      7735.00    0.0750357
      7740.00    0.0740440
      7745.00    0.0730551
      7750.00    0.0721140
      7755.00    0.0710866
      7760.00    0.0701253
      7765.00    0.0691752
      7770.00    0.0682560
      7775.00    0.0673354
      7780.00    0.0663810
      7785.00    0.0654499
      7790.00    0.0645357
      7795.00    0.0636480
      7800.00    0.0627560
      7805.00    0.0619048
      7810.00    0.0610756
      7815.00    0.0602058
      7820.00    0.0593570
      7825.00    0.0584953
      7830.00    0.0577109
      7835.00    0.0569057
      7840.00    0.0561040
      7845.00    0.0552951
      7850.00    0.0544992
      7855.00    0.0537327
      7860.00    0.0529876
      7865.00    0.0521960
      7870.00    0.0514407
      7875.00    0.0507035
      7880.00    0.0499941
      7885.00    0.0493016
      7890.00    0.0485676
      7895.00    0.0478463
      7900.00    0.0471704
      7905.00    0.0464586
      7910.00    0.0457719
      7915.00    0.0451307
      7920.00    0.0444344
      7925.00    0.0438264
      7930.00    0.0431576
      7935.00    0.0425505
      7940.00    0.0418814
      7945.00    0.0412569
      7950.00    0.0406328
      7955.00    0.0400422
      7960.00    0.0394397
      7965.00    0.0388582
      7970.00    0.0382619
      7975.00    0.0376930
      7980.00    0.0371317
      7985.00    0.0365687
      7990.00    0.0360260
      7995.00    0.0354853
      8000.00    0.0349271
      8005.00    0.0344073
      8010.00    0.0338847
      8015.00    0.0333183
      8020.00    0.0327796
      8025.00    0.0323275
      8030.00    0.0318068
      8035.00    0.0313284
      8040.00    0.0308703
      8045.00    0.0303474
      8050.00    0.0299089
      8055.00    0.0294100
      8060.00    0.0289509
      8065.00    0.0285041
      8070.00    0.0280741
      8075.00    0.0276496
      8080.00    0.0272035
      8085.00    0.0268012
      8090.00    0.0263496
      8095.00    0.0259470
      8100.00    0.0255205
      8105.00    0.0251442
      8110.00    0.0247153
      8115.00    0.0243553
      8120.00    0.0239319
      8125.00    0.0235302
      8130.00    0.0231592
      8135.00    0.0227822
      8140.00    0.0224073
      8145.00    0.0220583
      8150.00    0.0217134
      8155.00    0.0213669
      8160.00    0.0210049
      8165.00    0.0206682
      8170.00    0.0203439
      8175.00    0.0200260
      8180.00    0.0196646
      8185.00    0.0193647
      8190.00    0.0190296
      8195.00    0.0187108
      8200.00    0.0184300
      8205.00    0.0181114
      8210.00    0.0178167
      8215.00    0.0175623
      8220.00    0.0172198
      8225.00    0.0169493
      8230.00    0.0166610
      8235.00    0.0163897
      8240.00    0.0160970
      8245.00    0.0158442
      8250.00    0.0155543
      8255.00    0.0153062
      8260.00    0.0150802
      8265.00    0.0148289
      8270.00    0.0145629
      8275.00    0.0142992
      8280.00    0.0140704
      8285.00    0.0138323
      8290.00    0.0135876
      8295.00    0.0133508
      8300.00    0.0131219
      8305.00    0.0128755
      8310.00    0.0126755
      8315.00    0.0124815
      8320.00    0.0122632
      8325.00    0.0120433
      8330.00    0.0118143
      8335.00    0.0116219
      8340.00    0.0114291
      8345.00    0.0112207
      8350.00    0.0110959
      8355.00    0.0108379
      8360.00    0.0107330
      8365.00    0.0104918
      8370.00    0.0103255
      8375.00    0.0101423
      8380.00   0.00995453
      8385.00   0.00976802
      8390.00   0.00960674
      8395.00   0.00945562
      8400.00   0.00925605
      8405.00   0.00908641
      8410.00   0.00893619
      8415.00   0.00880633
      8420.00   0.00864198
      8425.00   0.00847091
      8430.00   0.00832016
      8435.00   0.00820811
      8440.00   0.00803116
      8445.00   0.00789814
      8450.00   0.00773797
      8455.00   0.00758883
      8460.00   0.00750006
      8465.00   0.00732263
      8470.00   0.00722882
      8475.00   0.00709631
      8480.00   0.00696061
      8485.00   0.00684785
      8490.00   0.00671580
      8495.00   0.00659800
      8500.00   0.00649926
      8505.00   0.00635388
      8510.00   0.00626969
      8515.00   0.00614663
      8520.00   0.00602950
      8525.00   0.00594646
      8530.00   0.00578558
      8535.00   0.00573645
      8540.00   0.00563283
      8545.00   0.00551545
      8550.00   0.00539219
      8555.00   0.00533581
      8560.00   0.00522214
      8565.00   0.00511060
      8570.00   0.00502966
      8575.00   0.00489708
      8580.00   0.00479468
      8585.00   0.00471360
      8590.00   0.00462275
      8595.00   0.00455423
      8600.00   0.00444762
      8605.00   0.00436523
      8610.00   0.00434865
      8615.00   0.00427648
      8620.00   0.00412711
      8625.00   0.00409219
      8630.00   0.00401215
      8635.00   0.00394695
      8640.00   0.00383705
      8645.00   0.00374716
      8650.00   0.00366502
      8655.00   0.00358732
      8660.00   0.00355890
      8665.00   0.00354725
      8670.00   0.00352111
      8675.00   0.00344411
      8680.00   0.00336498
      8685.00   0.00327540
      8690.00   0.00333235
      8695.00   0.00321762
      8700.00   0.00312074
      8705.00   0.00302561
      8710.00   0.00303875
      8715.00   0.00301646
      8720.00   0.00308903
      8725.00   0.00303148
      8730.00   0.00258956
      8735.00   0.00286571
      8740.00   0.00284328
      8745.00   0.00251890
      8750.00   0.00265816
      8755.00   0.00243956
      8760.00   0.00251332
      8765.00   0.00234555
      8770.00   0.00262555
      8775.00   0.00213271
      8780.00   0.00245928
      8785.00   0.00235191
      8790.00   0.00225597
      8795.00   0.00210926
      8800.00   0.00203824
      8805.00   0.00205335
      8810.00   0.00198271
      8815.00   0.00133555
      8820.00   0.00198573
      8825.00   0.00196193
      8830.00   0.00194087
      8835.00   0.00174682
      8840.00   0.00199120
      8845.00   0.00222030
      8850.00   0.00148727
      8855.00   0.00197300
      8860.00   0.00216841
      8865.00   0.00138300
      8870.00  0.000899284
      8875.00   0.00134508
      8880.00   0.00149436
      8885.00   0.00176439
      8890.00   0.00132183
      8895.00   0.00129253
      8900.00   0.00138175
      8905.00   0.00131379
      8910.00   0.00199708
      8915.00   0.00131227
      8920.00   0.00123875
      8925.00   0.00162324
      8930.00   0.00127038
      8935.00   0.00164117
      8940.00   0.00178424
      8945.00   0.00244262
      8950.00   0.00151800
      8955.00   0.00141727
      8960.00   0.00229880
      8965.00   0.00233412
      8970.00   0.00226830
      8975.00   0.00102293
      8980.00   0.00124481
      8985.00   0.00239209
      8990.00   0.00122803
      8995.00   0.00137111
      9000.00   0.00132461
      9005.00   0.00134169
      9010.00   0.00132933
      9015.00   0.00130770
      9020.00   0.00124613
      9025.00   0.00124964
      9030.00   0.00121120
      9035.00   0.00119710
      9040.00   0.00122711
      9045.00   0.00120746
      9050.00   0.00115565
      9055.00   0.00118205
      9060.00   0.00113796
      9065.00   0.00110341
      9070.00   0.00108759
      9075.00   0.00111708
      9080.00   0.00107052
      9085.00   0.00103961
      9090.00   0.00106324
      9095.00   0.00106525
      9100.00   0.00104333
      9105.00  0.000993536
      9110.00   0.00101444
      9115.00  0.000994981
      9120.00  0.000960900
      9125.00  0.000979087
      9130.00  0.000959785
      9135.00  0.000952220
      9140.00  0.000909842
      9145.00  0.000946520
      9150.00  0.000900630
      9155.00  0.000897414
      9160.00  0.000916496
      9165.00  0.000881456
      9170.00  0.000859069
      9175.00  0.000869172
      9180.00  0.000859259
      9185.00  0.000845161
      9190.00  0.000836309
      9195.00  0.000810604
      9200.00  0.000831265
      9205.00  0.000801823
      9210.00  0.000796269
      9215.00  0.000788889
      9220.00  0.000779586
      9225.00  0.000779826
      9230.00  0.000770177
      9235.00  0.000770939
      9240.00  0.000755998
      9245.00  0.000736253
      9250.00  0.000772962
      9255.00  0.000720791
      9260.00  0.000716523
      9265.00  0.000717836
      9270.00  0.000666424
      9275.00  0.000699766
      9280.00  0.000783059
      9285.00  0.000668493
      9290.00  0.000602535
      9295.00  0.000703063
      9300.00  0.000681236
      9305.00  0.000671016
      9310.00  0.000644552
      9315.00  0.000657549
      9320.00  0.000642936
      9325.00  0.000633979
      9330.00  0.000673750
      9335.00  0.000665662
      9340.00  0.000589362
      9345.00  0.000601451
      9350.00  0.000647762
      9355.00  0.000607273
      9360.00  0.000581477
      9365.00  0.000614224
      9370.00  0.000570214
      9375.00  0.000583756
      9380.00  0.000609550
      9385.00  0.000617306
      9390.00  0.000589164
      9395.00  0.000563437
      9400.00  0.000550047
      9405.00  0.000568874
      9410.00  0.000574123
      9415.00  0.000556941
      9420.00  0.000550415
      9425.00  0.000549945
      9430.00  0.000562819
      9435.00  0.000558590
      9440.00  0.000543270
      9445.00  0.000533575
      9450.00  0.000492470
      9455.00  0.000566916
      9460.00  0.000544360
      9465.00  0.000539985
      9470.00  0.000506875
      9475.00  0.000513884
      9480.00  0.000527261
      9485.00  0.000469930
      9490.00  0.000516019
      9495.00  0.000510444
      9500.00  0.000517290
      9505.00  0.000474235
      9510.00  0.000477954
      9515.00  0.000491734
      9520.00  0.000514356
      9525.00  0.000519331
      9530.00  0.000506285
      9535.00  0.000424875
      9540.00  0.000482736
      9545.00  0.000544942
      9550.00  0.000478309
      9555.00  0.000475279
      9560.00  0.000472620
      9565.00  0.000476459
      9570.00  0.000492378
      9575.00  0.000465232
      9580.00  0.000447514
      9585.00  0.000437669
      9590.00  0.000458503
      9595.00  0.000458733
      9600.00  0.000420979
      9605.00  0.000449622
      9610.00  0.000512945
      9615.00  0.000430526
      9620.00  0.000355592
      9625.00  0.000469388
      9630.00  0.000458908
      9635.00  0.000463384
      9640.00  0.000386723
      9645.00  0.000403283
      9650.00  0.000431613
      9655.00  0.000439515
      9660.00  0.000435372
      9665.00  0.000386114
      9670.00  0.000440846
      9675.00  0.000442042
      9680.00  0.000455180
      9685.00  0.000420641
      9690.00  0.000454423
      9695.00  0.000442605
      9700.00  0.000419828
      9705.00  0.000411154
      9710.00  0.000390647
      9715.00  0.000380399
      9720.00  0.000443865
      9725.00  0.000364220
      9730.00  0.000406802
      9735.00  0.000418346
      9740.00  0.000389265
      9745.00  0.000422829
      9750.00  0.000395991
      9755.00  0.000377007
      9760.00  0.000398104
      9765.00  0.000384910
      9770.00  0.000387059
      9775.00  0.000405910
      9780.00  0.000400941
      9785.00  0.000345716
      9790.00  0.000406853
      9795.00  0.000437944
      9800.00  0.000407162
      9805.00  0.000392036
      9810.00  0.000377833
      9815.00  0.000418590
      9820.00  0.000396188
      9825.00  0.000347739
      9830.00  0.000352019
      9835.00  0.000395730
      9840.00  0.000402202
      9845.00  0.000364696
      9850.00  0.000389541
      9855.00  0.000376502
      9860.00  0.000370631
      9865.00  0.000380560
      9870.00  0.000361919
      9875.00  0.000408741
      9880.00  0.000359805
      9885.00  0.000353101
      9890.00  0.000381472
      9895.00  0.000377777
      9900.00  0.000382402
      9905.00  0.000352645
      9910.00  0.000388279
      9915.00  0.000372842
      9920.00  0.000366655
      9925.00  0.000378971
      9930.00  0.000364244
      9935.00  0.000392000
      9940.00  0.000356924
      9945.00  0.000360089
      9950.00  0.000374587
      9955.00  0.000377399
      9960.00  0.000371585
      9965.00  0.000385893
      9970.00  0.000406101
      9975.00  0.000394516
      9980.00  0.000334110
      9985.00  0.000379239
      9990.00  0.000368600
      9995.00  0.000305203
      10000.0  0.000440470
      10005.0  0.000369671
      10010.0  0.000340093
      10015.0  0.000387528
      10020.0  0.000366165
      10025.0  0.000355944
      10030.0  0.000365551
      10035.0  0.000327515
      10040.0  0.000378693
      10045.0  0.000341165
      10050.0  0.000370931
      10055.0  0.000379362
      10060.0  0.000342167
      10065.0  0.000356401
      10070.0  0.000348074
      10075.0  0.000358549
      10080.0  0.000331161
      10085.0  0.000339666
      10090.0  0.000363086
      10095.0  0.000351925
      10100.0  0.000332724
      10105.0  0.000330790
      10110.0  0.000342650
      10115.0  0.000379982
      10120.0  0.000321801
      10125.0  0.000342044
      10130.0  0.000367079
      10135.0  0.000361853
      10140.0  0.000281288
      10145.0  0.000309079
      10150.0  0.000393000
      10155.0  0.000374000
      10160.0  0.000358232
      10165.0  0.000343664
      10170.0  0.000327378
      10175.0  0.000322209
      10180.0  0.000362129
      10185.0  0.000342544
      10190.0  0.000281129
      10195.0  0.000342461
      10200.0  0.000293907
      10205.0  0.000370368
      10210.0  0.000354715
      10215.0  0.000321476
      10220.0  0.000351808
      10225.0  0.000301013
      10230.0  0.000354125
      10235.0  0.000325308
      10240.0  0.000307898
      10245.0  0.000337339
      10250.0  0.000362174
      10255.0  0.000303317
      10260.0  0.000336410
      10265.0  0.000376555
      10270.0  0.000342959
      10275.0  0.000282655
      10280.0  0.000328254
      10285.0  0.000361913
      10290.0  0.000337551
      10295.0  0.000331795
      10300.0  0.000343264
      10305.0  0.000364205
      10310.0  0.000367075
      10315.0  0.000221347
      10320.0  0.000346629
      10325.0  0.000403807
      10330.0  0.000281095
      10335.0  0.000303406
      10340.0  0.000399491
      10345.0  0.000301793
      10350.0  0.000332915
      10355.0  0.000354685
      10360.0  0.000372433
      10365.0  0.000316549
      10370.0  0.000289374
      10375.0  0.000345808
      10380.0  0.000361171
      10385.0  0.000323440
      10390.0  0.000381168
      10395.0  0.000356116
      10400.0  0.000269988
      10405.0  0.000348974
      10410.0  0.000356332
      10415.0  0.000292817
      10420.0  0.000315272
      10425.0  0.000338360
      10430.0  0.000298552
      10435.0  0.000324953
      10440.0  0.000325631
      10445.0  0.000316521
      10450.0  0.000354863
      10455.0  0.000334798
      10460.0  0.000318515
      10465.0  0.000336086
      10470.0  0.000324140
      10475.0  0.000328967
      10480.0  0.000324995
      10485.0  0.000356422
      10490.0  0.000327517
      10495.0  0.000341225
      10500.0  0.000293552
      10505.0  0.000290622
      10510.0  0.000341461
      10515.0  0.000311302
      10520.0  0.000327772
      10525.0  0.000355704
      10530.0  0.000313462
      10535.0  0.000310381
      10540.0  0.000333937
      10545.0  0.000372694
      10550.0  0.000299725
      10555.0  0.000299246
      10560.0  0.000333717
      10565.0  0.000315459
      10570.0  0.000321169
      10575.0  0.000332998
      10580.0  0.000304302
      10585.0  0.000345698
      10590.0  0.000295805
      10595.0  0.000354709
      10600.0  0.000339275
      10605.0  0.000315623
      10610.0  0.000311660
      10615.0  0.000342047
      10620.0  0.000315237
      10625.0  0.000309245
      10630.0  0.000361497
      10635.0  0.000305280
      10640.0  0.000321113
      10645.0  0.000353124
      10650.0  0.000277877
      10655.0  0.000264304
      10660.0  0.000356324
      10665.0  0.000384052
      10670.0  0.000283205
      10675.0  0.000316284
      10680.0  0.000316353
      10685.0  0.000320191
      10690.0  0.000317517
      10695.0  0.000309768
      10700.0  0.000342356
      10705.0  0.000304838
      10710.0  0.000314539
      10715.0  0.000347097
      10720.0  0.000348335
      10725.0  0.000281481
      10730.0  0.000332703
      10735.0  0.000354487
      10740.0  0.000310010
      10745.0  0.000328208
      10750.0  0.000359763
      10755.0  0.000325662
      10760.0  0.000327120
      10765.0  0.000317274
      10770.0  0.000336983
      10775.0  0.000329258
      10780.0  0.000320600
      10785.0  0.000368897
      10790.0  0.000318305
      10795.0  0.000312980
      10800.0  0.000311756
      10805.0  0.000323798
      10810.0  0.000316669
      10815.0  0.000279091
      10820.0  0.000353774
      10825.0  0.000290741
      10830.0  0.000296850
      10835.0  0.000337337
      10840.0  0.000333097
      10845.0  0.000316448
      10850.0  0.000344778
      10855.0  0.000305902
      10860.0  0.000302357
      10865.0  0.000278206
      10870.0  0.000334387
      10875.0  0.000340218
      10880.0  0.000303620
      10885.0  0.000284460
      10890.0  0.000315640
      10895.0  0.000340309
      10900.0  0.000316566
      10905.0  0.000314391
      10910.0  0.000297046
      10915.0  0.000294996
      10920.0  0.000329958
      10925.0  0.000290749
      10930.0  0.000274714
      10935.0  0.000296848
      10940.0  0.000311472
      10945.0  0.000293058
      10950.0  0.000283414
      10955.0  0.000360179
      10960.0  0.000311929
      10965.0  0.000293882
      10970.0  0.000274101
      10975.0  0.000317415
      10980.0  0.000312528
      10985.0  0.000317355
      10990.0  0.000319457
      10995.0  0.000282073
      11000.0  0.000310185
